# 4-hydroxy-4-methyl-2-pentanone absorption cross sections measured by
# Magneron et al. (2003), ES&T 37, 4170-4181.

# λ/nm    σ/10^20 cm^2
  234      14.800
  236      13.600
  238      12.200
  240      11.000
  242      9.970
  244      9.070
  246      8.380
  248      8.020
  250      7.840
  252      7.650
  254      7.570
  256      7.440
  258      7.370
  260      7.330
  262      7.290
  264      6.990
  266      7.070
  268      7.200
  270      7.500
  272      7.730
  274      8.170
  276      8.460
  278      8.680
  280      8.840
  282      8.900
  284      8.890
  286      8.660
  288      8.550
  290      8.220
  292      7.920
  294      7.370
  296      6.890
  298      6.440
  300      5.960
  302      5.340
  304      4.700
  306      4.130
  308      3.560
  310      3.040
  312      2.530
  314      2.010
  316      1.600
  318      1.220
  320      0.949
  322      0.679
  324      0.490
  326      0.346
  328      0.238
  330      0.184
