# Averaged C5 unbranched ketone absorption cross sections using methyl n-propyl ketone
# measurements by Martinez et al., Atmos Environ 26A, 785-792, 1992 given in
# 2pentanone.abs and di-ethyl ketone measurements by Koch et al.,
# J Quant Spectrosc Radiat Transfer 109, 2037-2044, 2008 given in DEK_Koch08.abs.
# Mean is calculated using Julia module VectorMaths from repository auxdata v0.8
# (https://github.com/pb866/auxdata.git), where the mean outside the common data range
# is scaled by mean(all data)/mean(remaining data)
#
# λ/nm    σ / 1e-20 cm2)
202.00         4.84
202.23         4.46
203.01         2.36
203.80         1.38
204.58         0.96
205.36         0.75
206.00         0.60
206.15         0.58
206.93         0.54
207.72         0.53
208.50         0.52
209.28         0.57
210.00         0.55
210.07         0.55
210.85         0.59
211.63         0.58
212.42         0.54
213.20         0.52
213.99         0.53
214.00         0.53
214.77         0.57
215.55         0.57
216.34         0.54
217.12         0.54
217.90         0.56
218.00         0.56
218.69         0.56
219.47         0.54
220.26         0.55
221.04         0.54
221.82         0.53
222.00         0.53
222.61         0.53
223.39         0.55
224.18         0.53
224.96         0.56
225.74         0.56
226.00         0.55
226.53         0.53
227.31         0.53
228.09         0.58
228.88         0.60
229.66         0.60
230.00         0.60
230.45         0.61
231.23         0.63
232.01         0.65
232.80         0.66
233.58         0.70
234.00         0.71
234.36         0.72
235.15         0.78
235.93         0.80
236.72         0.86
237.50         0.89
238.00         0.95
238.28         0.99
239.07         1.03
239.85         1.10
240.63         1.18
241.42         1.26
242.00         1.28
242.20         1.30
242.99         1.45
243.77         1.49
244.55         1.64
245.34         1.67
246.00         1.75
246.12         1.77
246.91         1.88
247.69         1.99
248.47         2.13
249.26         2.22
250.00         2.32
250.04         2.33
250.82         2.46
251.61         2.58
252.39         2.76
253.18         2.87
253.96         2.96
254.00         2.96
254.74         3.11
255.53         3.30
256.31         3.34
257.09         3.53
257.88         3.62
258.00         3.64
258.66         3.78
259.45         3.92
260.23         4.02
261.01         4.15
261.80         4.29
262.00         4.35
262.58         4.50
263.37         4.57
264.15         4.72
264.93         4.82
265.72         4.97
266.00         5.01
266.50         5.07
267.28         5.18
268.07         5.33
268.85         5.44
269.64         5.53
270.00         5.59
270.42         5.65
271.20         5.71
271.99         5.83
272.77         5.89
273.55         5.96
274.00         5.93
274.34         5.93
275.12         6.12
275.91         6.10
276.69         6.14
277.47         6.09
278.00         6.10
278.26         6.12
279.04         6.19
279.82         6.15
280.00         6.16
280.61         6.22
281.00         6.24
281.39         6.24
282.00         6.17
282.18         6.15
282.96         6.10
283.00         6.10
283.74         6.08
284.00         6.08
284.53         6.05
285.00         5.98
285.31         5.95
286.00         5.94
286.10         5.94
286.88         5.84
287.00         5.84
287.66         5.80
288.00         5.75
288.45         5.67
289.00         5.59
289.23         5.55
290.00         5.42
290.01         5.42
290.80         5.43
291.00         5.41
291.58         5.28
292.00         5.23
292.37         5.18
293.00         5.05
293.15         5.02
293.93         4.93
294.00         4.92
294.72         4.82
295.00         4.73
295.50         4.57
296.00         4.50
296.28         4.47
297.00         4.31
297.07         4.30
297.85         4.22
298.00         4.20
298.64         4.09
299.00         4.03
299.42         3.95
300.00         3.86
300.20         3.83
300.99         3.66
301.00         3.66
301.77         3.47
302.00         3.42
302.56         3.31
303.00         3.22
303.34         3.16
304.00         3.05
304.12         3.03
304.91         2.89
305.00         2.87
305.69         2.68
306.00         2.61
306.47         2.51
307.00         2.39
307.26         2.34
308.00         2.25
308.04         2.24
308.83         2.12
309.00         2.07
309.61         1.91
310.00         1.91
310.39         1.91
311.00         1.77
311.18         1.72
311.96         1.64
312.00         1.63
312.74         1.52
313.00         1.47
313.53         1.37
314.00         1.35
314.31         1.32
315.00         1.16
315.10         1.14
315.88         1.06
316.00         1.05
316.66         1.00
317.00         0.97
317.45         0.94
318.00         0.88
318.23         0.85
319.00         0.74
319.01         0.74
319.80         0.69
320.00         0.67
320.58         0.59
321.00         0.56
321.37         0.55
322.00         0.56
322.15         0.54
322.93         0.38
323.00         0.38
323.72         0.47
324.00         0.45
324.50         0.36
325.00         0.32
325.29         0.31
326.00         0.30
326.07         0.29
327.00         0.24
328.00         0.20
329.00         0.16
330.00         0.13
331.00         0.10
332.00         0.08
333.00         0.06
334.00         0.05
335.00         0.04
336.00         0.03
337.00         0.02
338.00         0.02
339.00         0.01
340.00         0.01
341.00         0.01
342.00         0.00
343.00         0.01
344.00         0.00
345.00         0.00
346.00         0.00
347.00         0.00
348.00         0.00
349.00         0.00
350.00         0.00
351.00         0.00
352.00         0.00
353.00         0.00
354.00         0.00
355.00         0.00
